Time [s],Position [mm],Power [W]
0.003,0,0.416979
2.050,0.04,0.416772
4.606,0.08,0.416804
7.162,0.12,0.416979
9.719,0.16,0.41682
12.275,0.2,0.416915
14.831,0.24000000000000002,0.417042
17.403,0.28,0.417042
19.959,0.32,0.417074
22.516,0.36,0.416995
25.072,0.39999999999999997,0.416788
27.628,0.43999999999999995,0.417138
30.185,0.4799999999999999,0.417011
32.740,0.5199999999999999,0.416756
35.296,0.5599999999999999,0.416931
37.853,0.6,0.416931
40.407,0.64,0.416899
42.963,0.68,0.417058
45.504,0.7200000000000001,0.416947
48.062,0.7600000000000001,0.416597
50.617,0.8000000000000002,0.416868
53.172,0.8400000000000002,0.416645
55.731,0.8800000000000002,0.416883
58.286,0.9200000000000003,0.417042
60.843,0.9600000000000003,0.416677
63.398,1.0000000000000002,0.41682
65.955,1.0400000000000003,0.416963
68.545,1.0800000000000003,0.416709
71.101,1.1200000000000003,0.416947
73.686,1.1600000000000004,0.416963
76.243,1.2000000000000004,0.416899
78.800,1.2400000000000004,0.416804
81.356,1.2800000000000005,0.416438
83.912,1.3200000000000005,0.416661
86.468,1.3600000000000005,0.416883
89.024,1.4000000000000006,0.416677
91.581,1.4400000000000006,0.416534
94.137,1.4800000000000006,0.416995
96.692,1.5200000000000007,0.416772
99.248,1.5600000000000007,0.416661
101.805,1.6000000000000008,0.416645
104.360,1.6400000000000008,0.416788
106.917,1.6800000000000008,0.416565
109.471,1.7200000000000009,0.416883
112.029,1.760000000000001,0.417058
114.586,1.800000000000001,0.416852
117.140,1.840000000000001,0.416947
119.696,1.880000000000001,0.416804
122.254,1.920000000000001,0.416868
124.809,1.960000000000001,0.416852
127.365,2.000000000000001,0.416915
129.920,2.040000000000001,0.416931
132.477,2.080000000000001,0.416804
135.034,2.120000000000001,0.416693
137.591,2.160000000000001,0.416915
140.146,2.200000000000001,0.416804
142.703,2.240000000000001,0.416772
145.259,2.280000000000001,0.416756
147.814,2.320000000000001,0.416883
150.371,2.360000000000001,0.417202
152.928,2.4000000000000012,0.417011
155.485,2.4400000000000013,0.416756
158.039,2.4800000000000013,0.417042
160.597,2.5200000000000014,0.416677
163.151,2.5600000000000014,0.416979
165.710,2.6000000000000014,0.416883
168.264,2.6400000000000015,0.41682
170.822,2.6800000000000015,0.416597
173.376,2.7200000000000015,0.416915
175.933,2.7600000000000016,0.416899
178.489,2.8000000000000016,0.41674
181.046,2.8400000000000016,0.416804
183.601,2.8800000000000017,0.416693
186.157,2.9200000000000017,0.416677
188.713,2.9600000000000017,0.416995
191.270,3.0000000000000018,0.416979
193.841,3.040000000000002,0.417058
196.398,3.080000000000002,0.417265
198.955,3.120000000000002,0.417011
201.509,3.160000000000002,0.417027
204.066,3.200000000000002,0.417042
206.624,3.240000000000002,0.417106
209.179,3.280000000000002,0.417138
211.735,3.320000000000002,0.417377
214.291,3.360000000000002,0.417281
216.848,3.400000000000002,0.41744
219.407,3.440000000000002,0.417313
221.975,3.480000000000002,0.417249
224.535,3.5200000000000022,0.41709
227.087,3.5600000000000023,0.417392
229.644,3.6000000000000023,0.417186
232.199,3.6400000000000023,0.417424
234.757,3.6800000000000024,0.417329
237.313,3.7200000000000024,0.417504
239.871,3.7600000000000025,0.417663
242.425,3.8000000000000025,0.417647
244.981,3.8400000000000025,0.417551
247.560,3.8800000000000026,0.41771
250.109,3.9200000000000026,0.417599
252.667,3.9600000000000026,0.417599
255.222,4.000000000000003,0.417679
257.794,4.040000000000003,0.41771
260.350,4.080000000000003,0.417647
262.905,4.120000000000003,0.417233
265.462,4.160000000000003,0.417742
268.019,4.200000000000003,0.417981
270.575,4.240000000000003,0.41806
273.131,4.280000000000003,0.417981
275.686,4.320000000000003,0.418092
278.243,4.360000000000003,0.41849
280.798,4.400000000000003,0.41841
283.355,4.440000000000003,0.418617
285.927,4.480000000000003,0.418919
288.483,4.520000000000003,0.418919
291.038,4.560000000000003,0.418776
293.595,4.600000000000003,0.418871
296.151,4.640000000000003,0.418712
298.707,4.680000000000003,0.418633
301.263,4.720000000000003,0.418665
303.820,4.760000000000003,0.418856
306.392,4.800000000000003,0.418871
308.948,4.840000000000003,0.418983
311.505,4.8800000000000034,0.418824
314.061,4.9200000000000035,0.418696
316.627,4.9600000000000035,0.418903
319.187,5.0000000000000036,0.419062
321.744,5.040000000000004,0.41884
324.301,5.080000000000004,0.419285
326.857,5.120000000000004,0.418983
329.412,5.160000000000004,0.419221
331.969,5.200000000000004,0.419221
334.526,5.240000000000004,0.419205
337.081,5.280000000000004,0.419253
339.637,5.320000000000004,0.419348
342.193,5.360000000000004,0.419539
344.781,5.400000000000004,0.419619
347.339,5.440000000000004,0.419746
349.922,5.480000000000004,0.419651
352.484,5.520000000000004,0.419444
355.054,5.560000000000004,0.419555
357.610,5.600000000000004,0.419428
360.167,5.640000000000004,0.419714
362.737,5.680000000000004,0.419778
365.295,5.720000000000004,0.419555
367.867,5.760000000000004,0.419619
370.439,5.800000000000004,0.419794
372.994,5.840000000000004,0.419746
375.551,5.880000000000004,0.420255
378.109,5.920000000000004,0.420096
380.663,5.960000000000004,0.420048
383.220,6.000000000000004,0.419969
385.777,6.0400000000000045,0.420207
388.332,6.0800000000000045,0.420175
390.888,6.1200000000000045,0.420096
393.444,6.160000000000005,0.420207
395.999,6.200000000000005,0.420303
398.557,6.240000000000005,0.420271
401.112,6.280000000000005,0.420207
403.668,6.320000000000005,0.420462
406.225,6.360000000000005,0.42043
408.780,6.400000000000005,0.420446
411.337,6.440000000000005,0.420764
413.900,6.480000000000005,0.42113
416.450,6.520000000000005,0.421289
419.006,6.560000000000005,0.421177
421.564,6.600000000000005,0.421623
424.118,6.640000000000005,0.421511
426.674,6.680000000000005,0.42202
429.230,6.720000000000005,0.422084
431.786,6.760000000000005,0.422577
434.343,6.800000000000005,0.423134
436.899,6.840000000000005,0.423499
439.455,6.880000000000005,0.423547
442.012,6.920000000000005,0.423547
444.569,6.960000000000005,0.423483
447.124,7.000000000000005,0.423531
449.681,7.040000000000005,0.423102
452.236,7.080000000000005,0.423277
454.793,7.120000000000005,0.423404
457.364,7.1600000000000055,0.423563
459.921,7.2000000000000055,0.423706
462.477,7.2400000000000055,0.424008
465.064,7.280000000000006,0.424215
467.621,7.320000000000006,0.424692
470.176,7.360000000000006,0.424803
472.733,7.400000000000006,0.425265
475.288,7.440000000000006,0.425503
477.845,7.480000000000006,0.426505
480.400,7.520000000000006,0.426855
482.956,7.560000000000006,0.427571
485.513,7.600000000000006,0.427952
488.070,7.640000000000006,0.428143
490.624,7.680000000000006,0.428223
493.181,7.720000000000006,0.428604
495.736,7.760000000000006,0.428207
498.293,7.800000000000006,0.427984
500.851,7.840000000000006,0.42792
503.406,7.880000000000006,0.427666
505.962,7.920000000000006,0.427523
508.519,7.960000000000006,0.427348
511.074,8.000000000000005,0.427221
513.630,8.040000000000004,0.427411
516.186,8.080000000000004,0.427475
518.742,8.120000000000003,0.427332
521.315,8.160000000000002,0.426903
523.871,8.200000000000001,0.42695
526.426,8.24,0.42703
528.983,8.28,0.426855
531.539,8.319999999999999,0.426759
534.123,8.359999999999998,0.42703
536.671,8.399999999999997,0.426759
539.257,8.439999999999996,0.426966
541.813,8.479999999999995,0.427014
544.368,8.519999999999994,0.426919
546.925,8.559999999999993,0.427062
549.480,8.599999999999993,0.426887
552.036,8.639999999999992,0.426823
554.592,8.67999999999999,0.427157
557.148,8.71999999999999,0.426919
559.704,8.75999999999999,0.4266
562.259,8.799999999999988,0.426712
564.816,8.839999999999987,0.426903
567.373,8.879999999999987,0.426791
569.929,8.919999999999986,0.4266
572.487,8.959999999999985,0.426505
575.041,8.999999999999984,0.426298
577.597,9.039999999999983,0.426219
580.153,9.079999999999982,0.426155
582.709,9.119999999999981,0.425742
585.264,9.15999999999998,0.425694
587.822,9.19999999999998,0.425201
590.377,9.239999999999979,0.424883
592.936,9.279999999999978,0.424899
595.490,9.319999999999977,0.424342
598.046,9.359999999999976,0.424088
600.618,9.399999999999975,0.424135
603.175,9.439999999999975,0.423722
605.730,9.479999999999974,0.42342
608.286,9.519999999999973,0.423404
610.842,9.559999999999972,0.423308
613.400,9.599999999999971,0.423245
615.956,9.63999999999997,0.423165
618.523,9.67999999999997,0.423149
621.069,9.719999999999969,0.422736
623.624,9.759999999999968,0.422577
626.180,9.799999999999967,0.42272
628.736,9.839999999999966,0.422497
631.292,9.879999999999965,0.422291
633.880,9.919999999999964,0.4221
636.436,9.959999999999964,0.421877
638.993,9.999999999999963,0.421845
641.550,10.039999999999962,0.421782
644.105,10.079999999999961,0.421559
646.661,10.11999999999996,0.421225
649.217,10.15999999999996,0.421257
651.773,10.199999999999958,0.421257
654.331,10.239999999999958,0.421034
656.886,10.279999999999957,0.420843
659.441,10.319999999999956,0.420716
661.997,10.359999999999955,0.421098
664.555,10.399999999999954,0.42078
667.110,10.439999999999953,0.420939
669.698,10.479999999999952,0.42078
672.254,10.519999999999952,0.420796
674.812,10.55999999999995,0.420335
677.366,10.59999999999995,0.420335
679.924,10.639999999999949,0.4207
682.480,10.679999999999948,0.420287
685.035,10.719999999999947,0.420637
687.592,10.759999999999946,0.420462
690.148,10.799999999999946,0.420414
692.704,10.839999999999945,0.420382
695.261,10.879999999999944,0.420064
697.817,10.919999999999943,0.420112
700.372,10.959999999999942,0.420016
702.928,10.999999999999941,0.420287
705.485,11.03999999999994,0.420064
708.042,11.07999999999994,0.42016
710.613,11.119999999999939,0.420032
713.169,11.159999999999938,0.420064
715.728,11.199999999999937,0.419826
718.298,11.239999999999936,0.419826
720.853,11.279999999999935,0.419889
723.410,11.319999999999935,0.419778
725.965,11.359999999999934,0.419889
728.521,11.399999999999933,0.419873
731.079,11.439999999999932,0.419873
733.636,11.479999999999931,0.419841
736.191,11.51999999999993,0.419873
738.747,11.55999999999993,0.419762
741.304,11.599999999999929,0.419619
743.858,11.639999999999928,0.419683
746.414,11.679999999999927,0.419523
748.971,11.719999999999926,0.419635
751.528,11.759999999999925,0.419492
754.085,11.799999999999924,0.419698
756.639,11.839999999999923,0.419667
759.196,11.879999999999923,0.419714
761.752,11.919999999999922,0.419539
764.309,11.959999999999921,0.419476
766.864,11.99999999999992,0.419396
769.420,12.03999999999992,0.419492
771.977,12.079999999999918,0.419635
774.533,12.119999999999918,0.419269
777.103,12.159999999999917,0.419476
779.660,12.199999999999916,0.419348
782.216,12.239999999999915,0.419348
784.772,12.279999999999914,0.419412
787.329,12.319999999999913,0.419364
789.885,12.359999999999912,0.418999
792.440,12.399999999999912,0.418983
794.996,12.43999999999991,0.419428
797.555,12.47999999999991,0.419126
800.110,12.519999999999909,0.419348
802.665,12.559999999999908,0.419205
805.220,12.599999999999907,0.418903
807.778,12.639999999999906,0.419094
810.335,12.679999999999906,0.419046
812.907,12.719999999999905,0.419046
815.462,12.759999999999904,0.41903
818.020,12.799999999999903,0.418856
820.605,12.839999999999902,0.418999
823.163,12.879999999999901,0.418776
825.718,12.9199999999999,0.418967
828.281,12.9599999999999,0.418967
830.831,12.999999999999899,0.418951
