Time [s],Position [mm],Power [W]
0.003,0,0.431181
2.066,0.04,0.430799
4.623,0.08,0.430942
7.179,0.12,0.431022
9.735,0.16,0.431101
12.290,0.2,0.431022
14.848,0.24000000000000002,0.430894
17.404,0.28,0.431037
19.960,0.32,0.431133
22.526,0.36,0.431053
25.071,0.39999999999999997,0.431212
27.627,0.43999999999999995,0.431419
30.183,0.4799999999999999,0.431165
32.740,0.5199999999999999,0.431022
35.296,0.5599999999999999,0.431022
37.852,0.6,0.431022
40.409,0.64,0.430974
42.965,0.68,0.431006
45.521,0.7200000000000001,0.431037
48.076,0.7600000000000001,0.431244
50.631,0.8000000000000002,0.431196
53.189,0.8400000000000002,0.431085
55.745,0.8800000000000002,0.431037
58.301,0.9200000000000003,0.431212
60.889,0.9600000000000003,0.431292
63.444,1.0000000000000002,0.43099
66.001,1.0400000000000003,0.431117
68.556,1.0800000000000003,0.431053
71.113,1.1200000000000003,0.431053
73.670,1.1600000000000004,0.430974
76.226,1.2000000000000004,0.431133
78.781,1.2400000000000004,0.431212
81.338,1.2800000000000005,0.431117
83.894,1.3200000000000005,0.431069
86.450,1.3600000000000005,0.431149
89.006,1.4000000000000006,0.431133
91.564,1.4400000000000006,0.431149
94.119,1.4800000000000006,0.431165
96.676,1.5200000000000007,0.431022
99.232,1.5600000000000007,0.430974
101.790,1.6000000000000008,0.431037
104.342,1.6400000000000008,0.431356
106.898,1.6800000000000008,0.431276
109.455,1.7200000000000009,0.431085
112.011,1.760000000000001,0.431165
114.568,1.800000000000001,0.431101
117.125,1.840000000000001,0.431181
119.681,1.880000000000001,0.43099
122.236,1.920000000000001,0.431212
124.792,1.960000000000001,0.431101
127.348,2.000000000000001,0.430926
129.937,2.040000000000001,0.431053
132.493,2.080000000000001,0.431117
135.050,2.120000000000001,0.431069
137.604,2.160000000000001,0.431149
140.162,2.200000000000001,0.43126
142.717,2.240000000000001,0.431101
145.289,2.280000000000001,0.431149
147.845,2.320000000000001,0.431069
150.403,2.360000000000001,0.43091
152.958,2.4000000000000012,0.431181
155.514,2.4400000000000013,0.431244
158.071,2.4800000000000013,0.431069
160.626,2.5200000000000014,0.431292
163.183,2.5600000000000014,0.431117
165.740,2.6000000000000014,0.431069
168.295,2.6400000000000015,0.431069
170.852,2.6800000000000015,0.431196
173.407,2.7200000000000015,0.431101
175.963,2.7600000000000016,0.431276
178.520,2.8000000000000016,0.431467
181.075,2.8400000000000016,0.43126
183.631,2.8800000000000017,0.431037
186.188,2.9200000000000017,0.431085
188.745,2.9600000000000017,0.431069
191.300,3.0000000000000018,0.431006
193.856,3.040000000000002,0.431276
196.412,3.080000000000002,0.431117
198.969,3.120000000000002,0.431212
201.525,3.160000000000002,0.431181
204.080,3.200000000000002,0.431212
206.638,3.240000000000002,0.431228
209.193,3.280000000000002,0.431101
211.754,3.320000000000002,0.431037
214.306,3.360000000000002,0.43134
216.863,3.400000000000002,0.431244
219.434,3.440000000000002,0.43134
221.990,3.480000000000002,0.431292
224.548,3.5200000000000022,0.431149
227.102,3.5600000000000023,0.431101
229.674,3.6000000000000023,0.431165
232.248,3.6400000000000023,0.431149
234.803,3.6800000000000024,0.431117
237.358,3.7200000000000024,0.431149
239.915,3.7600000000000025,0.431053
242.472,3.8000000000000025,0.431085
245.028,3.8400000000000025,0.431387
247.583,3.8800000000000026,0.431069
250.149,3.9200000000000026,0.431212
252.711,3.9600000000000026,0.431244
255.268,4.000000000000003,0.431149
257.824,4.040000000000003,0.431324
260.381,4.080000000000003,0.431403
262.935,4.120000000000003,0.431244
265.491,4.160000000000003,0.431101
268.050,4.200000000000003,0.430862
270.604,4.240000000000003,0.430767
273.159,4.280000000000003,0.431165
275.717,4.320000000000003,0.431117
278.291,4.360000000000003,0.430926
280.845,4.400000000000003,0.430878
283.401,4.440000000000003,0.431069
285.958,4.480000000000003,0.431117
288.514,4.520000000000003,0.431133
291.102,4.560000000000003,0.430958
293.658,4.600000000000003,0.431181
296.215,4.640000000000003,0.43091
298.770,4.680000000000003,0.431133
301.341,4.720000000000003,0.431069
303.898,4.760000000000003,0.431022
306.454,4.800000000000003,0.431212
309.027,4.840000000000003,0.431149
311.583,4.8800000000000034,0.431371
314.140,4.9200000000000035,0.431308
316.695,4.9600000000000035,0.431228
319.269,5.0000000000000036,0.431196
321.823,5.040000000000004,0.430958
324.381,5.080000000000004,0.431006
326.936,5.120000000000004,0.430815
329.494,5.160000000000004,0.430815
332.068,5.200000000000004,0.430703
334.620,5.240000000000004,0.431228
337.176,5.280000000000004,0.43099
339.732,5.320000000000004,0.431006
342.290,5.360000000000004,0.431037
344.845,5.400000000000004,0.431069
347.401,5.440000000000004,0.43091
349.957,5.480000000000004,0.431085
352.513,5.520000000000004,0.43091
355.073,5.560000000000004,0.431196
357.624,5.600000000000004,0.431022
360.182,5.640000000000004,0.430878
362.739,5.680000000000004,0.431212
365.293,5.720000000000004,0.431196
367.850,5.760000000000004,0.431483
370.406,5.800000000000004,0.431387
372.963,5.840000000000004,0.43161
375.519,5.880000000000004,0.431785
378.090,5.920000000000004,0.431594
380.646,5.960000000000004,0.431435
383.204,6.000000000000004,0.43161
385.760,6.0400000000000045,0.431674
388.315,6.0800000000000045,0.431467
390.871,6.1200000000000045,0.431467
393.427,6.160000000000005,0.431244
395.983,6.200000000000005,0.431181
398.557,6.240000000000005,0.431292
401.114,6.280000000000005,0.431228
403.668,6.320000000000005,0.431149
406.258,6.360000000000005,0.430958
408.812,6.400000000000005,0.430926
411.401,6.440000000000005,0.431212
413.957,6.480000000000005,0.431069
416.513,6.520000000000005,0.431196
419.070,6.560000000000005,0.431276
421.626,6.600000000000005,0.431515
424.181,6.640000000000005,0.431419
426.739,6.680000000000005,0.431753
429.311,6.720000000000005,0.431721
431.867,6.760000000000005,0.431483
434.423,6.800000000000005,0.43153
436.990,6.840000000000005,0.431642
439.535,6.880000000000005,0.43153
442.107,6.920000000000005,0.431292
444.663,6.960000000000005,0.431181
447.219,7.000000000000005,0.430974
449.777,7.040000000000005,0.430862
452.332,7.080000000000005,0.430958
454.887,7.120000000000005,0.430608
457.443,7.1600000000000055,0.430576
460.001,7.2000000000000055,0.430767
462.556,7.2400000000000055,0.43056
465.114,7.280000000000006,0.430815
467.668,7.320000000000006,0.430449
470.225,7.360000000000006,0.430608
472.796,7.400000000000006,0.430306
475.355,7.440000000000006,0.429972
477.909,7.480000000000006,0.429368
480.466,7.520000000000006,0.428557
483.021,7.560000000000006,0.428127
485.579,7.600000000000006,0.428207
488.135,7.640000000000006,0.428095
490.690,7.680000000000006,0.428557
493.246,7.720000000000006,0.428684
495.803,7.760000000000006,0.428652
498.359,7.800000000000006,0.429065
500.915,7.840000000000006,0.429749
503.471,7.880000000000006,0.430878
506.045,7.920000000000006,0.431546
508.599,7.960000000000006,0.432739
511.156,8.000000000000005,0.433518
513.713,8.040000000000004,0.433932
516.269,8.080000000000004,0.433964
518.847,8.120000000000003,0.433757
521.396,8.160000000000002,0.434011
523.952,8.200000000000001,0.434282
526.508,8.24,0.43417
529.065,8.28,0.43417
531.621,8.319999999999999,0.434298
534.178,8.359999999999998,0.433868
536.736,8.399999999999997,0.434393
539.303,8.439999999999996,0.434043
541.862,8.479999999999995,0.434202
544.418,8.519999999999994,0.433932
546.979,8.559999999999993,0.43398
549.548,8.599999999999993,0.434075
552.104,8.639999999999992,0.433773
554.659,8.67999999999999,0.433598
557.214,8.71999999999999,0.433741
559.772,8.75999999999999,0.434027
562.327,8.799999999999988,0.433805
564.899,8.839999999999987,0.433836
567.456,8.879999999999987,0.434139
570.011,8.919999999999986,0.433948
572.569,8.959999999999985,0.433041
575.125,8.999999999999984,0.433677
577.680,9.039999999999983,0.433471
580.235,9.079999999999982,0.433073
582.793,9.119999999999981,0.433137
585.350,9.15999999999998,0.432946
587.904,9.19999999999998,0.432739
590.461,9.239999999999979,0.432548
593.033,9.279999999999978,0.432612
595.620,9.319999999999977,0.432326
598.177,9.359999999999976,0.432294
600.734,9.399999999999975,0.43223
603.290,9.439999999999975,0.431896
605.862,9.479999999999974,0.431817
608.419,9.519999999999973,0.431833
610.974,9.559999999999972,0.431785
613.531,9.599999999999971,0.431785
616.087,9.63999999999997,0.431801
618.642,9.67999999999997,0.431689
621.199,9.719999999999969,0.431499
623.754,9.759999999999968,0.431371
626.310,9.799999999999967,0.431387
628.868,9.839999999999966,0.431419
631.426,9.879999999999965,0.431292
633.980,9.919999999999964,0.431292
636.535,9.959999999999964,0.431196
639.093,9.999999999999963,0.431196
641.648,10.039999999999962,0.431308
644.205,10.079999999999961,0.431117
646.775,10.11999999999996,0.431006
649.332,10.15999999999996,0.431101
651.888,10.199999999999958,0.431085
654.444,10.239999999999958,0.430815
657.002,10.279999999999957,0.430449
659.556,10.319999999999956,0.431244
662.113,10.359999999999955,0.430672
664.669,10.399999999999954,0.430688
667.225,10.439999999999953,0.430592
669.781,10.479999999999952,0.430767
672.337,10.519999999999952,0.430783
674.893,10.55999999999995,0.430958
677.449,10.59999999999995,0.430656
680.007,10.639999999999949,0.430767
682.562,10.679999999999948,0.430608
685.120,10.719999999999947,0.430847
687.675,10.759999999999946,0.430783
690.233,10.799999999999946,0.430974
692.787,10.839999999999945,0.431037
695.346,10.879999999999944,0.43099
697.898,10.919999999999943,0.430751
700.457,10.959999999999942,0.431006
703.012,10.999999999999941,0.430974
705.569,11.03999999999994,0.430974
708.124,11.07999999999994,0.43091
710.682,11.119999999999939,0.430878
713.237,11.159999999999938,0.430481
715.793,11.199999999999937,0.430831
718.366,11.239999999999936,0.430831
720.922,11.279999999999935,0.430894
723.509,11.319999999999935,0.430831
726.066,11.359999999999934,0.430703
728.638,11.399999999999933,0.430719
731.193,11.439999999999932,0.430799
733.751,11.479999999999931,0.430719
736.307,11.51999999999993,0.430878
738.879,11.55999999999993,0.431085
741.435,11.599999999999929,0.430878
743.991,11.639999999999928,0.430783
746.547,11.679999999999927,0.430974
749.102,11.719999999999926,0.431069
751.676,11.759999999999925,0.431053
754.233,11.799999999999924,0.430815
756.836,11.839999999999923,0.430958
759.393,11.879999999999923,0.430735
761.949,11.919999999999922,0.431022
764.506,11.959999999999921,0.430815
767.062,11.99999999999992,0.430767
769.618,12.03999999999992,0.431006
772.175,12.079999999999918,0.430576
774.730,12.119999999999918,0.430958
777.287,12.159999999999917,0.430719
779.859,12.199999999999916,0.430894
782.414,12.239999999999915,0.431006
784.987,12.279999999999914,0.430958
787.543,12.319999999999913,0.430942
790.099,12.359999999999912,0.430847
792.654,12.399999999999912,0.430942
795.213,12.43999999999991,0.430974
797.768,12.47999999999991,0.431053
800.324,12.519999999999909,0.430703
802.880,12.559999999999908,0.430767
805.437,12.599999999999907,0.431085
807.992,12.639999999999906,0.430672
810.549,12.679999999999906,0.430847
813.103,12.719999999999905,0.431022
815.661,12.759999999999904,0.430878
818.217,12.799999999999903,0.430878
820.774,12.839999999999902,0.430831
823.330,12.879999999999901,0.430878
825.885,12.9199999999999,0.431022
828.441,12.9599999999999,0.430894
830.997,12.999999999999899,0.430894
