Time [s],Position [mm],Power [W]
0.002,0,0.418537
2.054,0.04,0.418681
4.609,0.08,0.418394
7.167,0.12,0.418856
9.721,0.16,0.418696
12.294,0.2,0.418347
14.849,0.24000000000000002,0.418426
17.406,0.28,0.418458
19.963,0.32,0.418665
22.519,0.36,0.418585
25.107,0.39999999999999997,0.418569
27.663,0.43999999999999995,0.418633
30.219,0.4799999999999999,0.41884
32.777,0.5199999999999999,0.418569
35.335,0.5599999999999999,0.418633
37.890,0.6,0.418665
40.443,0.64,0.418553
43.001,0.68,0.418537
45.557,0.7200000000000001,0.418585
48.112,0.7600000000000001,0.418537
50.668,0.8000000000000002,0.418649
53.225,0.8400000000000002,0.418299
55.780,0.8800000000000002,0.418378
58.336,0.9200000000000003,0.418394
60.911,0.9600000000000003,0.41814
63.465,1.0000000000000002,0.418362
66.022,1.0400000000000003,0.418553
68.577,1.0800000000000003,0.418585
71.135,1.1200000000000003,0.418506
73.691,1.1600000000000004,0.418442
76.246,1.2000000000000004,0.418506
78.801,1.2400000000000004,0.418553
81.357,1.2800000000000005,0.418347
83.915,1.3200000000000005,0.418315
86.470,1.3600000000000005,0.418649
89.026,1.4000000000000006,0.418617
91.585,1.4400000000000006,0.418649
94.139,1.4800000000000006,0.418649
96.698,1.5200000000000007,0.418537
99.252,1.5600000000000007,0.418537
101.807,1.6000000000000008,0.418601
104.362,1.6400000000000008,0.418696
106.920,1.6800000000000008,0.418776
109.476,1.7200000000000009,0.418967
112.032,1.760000000000001,0.418506
114.589,1.800000000000001,0.418601
117.143,1.840000000000001,0.418681
119.700,1.880000000000001,0.418856
122.256,1.920000000000001,0.418649
124.811,1.960000000000001,0.418967
127.367,2.000000000000001,0.418712
129.924,2.040000000000001,0.418728
132.479,2.080000000000001,0.41876
135.035,2.120000000000001,0.41884
137.593,2.160000000000001,0.418935
140.149,2.200000000000001,0.418665
142.705,2.240000000000001,0.418712
145.259,2.280000000000001,0.418999
147.823,2.320000000000001,0.418712
150.372,2.360000000000001,0.418999
152.929,2.4000000000000012,0.419015
155.485,2.4400000000000013,0.419015
158.041,2.4800000000000013,0.419237
160.597,2.5200000000000014,0.419094
163.153,2.5600000000000014,0.419158
165.710,2.6000000000000014,0.419142
168.266,2.6400000000000015,0.419046
170.822,2.6800000000000015,0.419078
173.395,2.7200000000000015,0.418999
175.950,2.7600000000000016,0.419205
178.506,2.8000000000000016,0.419046
181.063,2.8400000000000016,0.419285
183.618,2.8800000000000017,0.419237
186.175,2.9200000000000017,0.419221
188.732,2.9600000000000017,0.419205
191.288,3.0000000000000018,0.419269
193.843,3.040000000000002,0.419603
196.400,3.080000000000002,0.419396
198.971,3.120000000000002,0.419508
201.528,3.160000000000002,0.419492
204.084,3.200000000000002,0.419428
206.653,3.240000000000002,0.419667
209.196,3.280000000000002,0.419603
211.754,3.320000000000002,0.419555
214.349,3.360000000000002,0.419619
216.898,3.400000000000002,0.419857
219.453,3.440000000000002,0.419619
222.010,3.480000000000002,0.419523
224.565,3.5200000000000022,0.419698
227.122,3.5600000000000023,0.41981
229.680,3.6000000000000023,0.419714
232.236,3.6400000000000023,0.41973
234.791,3.6800000000000024,0.419857
237.346,3.7200000000000024,0.419969
239.903,3.7600000000000025,0.419969
242.459,3.8000000000000025,0.420255
245.016,3.8400000000000025,0.420001
247.571,3.8800000000000026,0.420382
250.128,3.9200000000000026,0.420398
252.684,3.9600000000000026,0.420366
255.241,4.000000000000003,0.420462
257.797,4.040000000000003,0.420144
260.353,4.080000000000003,0.420271
262.909,4.120000000000003,0.420541
265.465,4.160000000000003,0.420573
268.021,4.200000000000003,0.420509
270.577,4.240000000000003,0.420748
273.134,4.280000000000003,0.420621
275.690,4.320000000000003,0.420605
278.262,4.360000000000003,0.4207
280.818,4.400000000000003,0.420796
283.391,4.440000000000003,0.420541
285.947,4.480000000000003,0.420828
288.502,4.520000000000003,0.420923
291.059,4.560000000000003,0.420891
293.614,4.600000000000003,0.420923
296.170,4.640000000000003,0.420987
298.728,4.680000000000003,0.420875
301.284,4.720000000000003,0.420812
303.840,4.760000000000003,0.420843
306.432,4.800000000000003,0.420891
308.984,4.840000000000003,0.421002
311.555,4.8800000000000034,0.420987
314.112,4.9200000000000035,0.420923
316.668,4.9600000000000035,0.421162
319.226,5.0000000000000036,0.421257
321.782,5.040000000000004,0.420971
324.337,5.080000000000004,0.42113
326.893,5.120000000000004,0.421273
329.448,5.160000000000004,0.421177
332.006,5.200000000000004,0.421305
334.562,5.240000000000004,0.421384
337.118,5.280000000000004,0.42148
339.674,5.320000000000004,0.421257
342.230,5.360000000000004,0.42132
344.785,5.400000000000004,0.421495
347.342,5.440000000000004,0.421543
349.897,5.480000000000004,0.421829
352.453,5.520000000000004,0.421368
355.010,5.560000000000004,0.421543
357.566,5.600000000000004,0.421511
360.121,5.640000000000004,0.42175
362.679,5.680000000000004,0.421511
365.237,5.720000000000004,0.421845
367.791,5.760000000000004,0.421829
370.347,5.800000000000004,0.421909
372.904,5.840000000000004,0.421782
375.459,5.880000000000004,0.421639
378.017,5.920000000000004,0.421845
380.573,5.960000000000004,0.421973
383.129,6.000000000000004,0.421861
385.684,6.0400000000000045,0.421957
388.240,6.0800000000000045,0.422259
390.797,6.1200000000000045,0.422132
393.352,6.160000000000005,0.422243
395.909,6.200000000000005,0.422211
398.466,6.240000000000005,0.422307
401.022,6.280000000000005,0.422386
403.577,6.320000000000005,0.422434
406.133,6.360000000000005,0.422322
408.689,6.400000000000005,0.422529
411.245,6.440000000000005,0.422879
413.802,6.480000000000005,0.422799
416.357,6.520000000000005,0.422768
418.913,6.560000000000005,0.423118
421.470,6.600000000000005,0.423356
424.026,6.640000000000005,0.423611
426.582,6.680000000000005,0.423865
429.138,6.720000000000005,0.423945
431.694,6.760000000000005,0.424406
434.250,6.800000000000005,0.42466
436.807,6.840000000000005,0.424867
439.363,6.880000000000005,0.424724
441.919,6.920000000000005,0.42501
444.490,6.960000000000005,0.424915
447.047,7.000000000000005,0.424644
449.603,7.040000000000005,0.424772
452.162,7.080000000000005,0.424803
454.717,7.120000000000005,0.42474
457.273,7.1600000000000055,0.424787
459.829,7.2000000000000055,0.424883
462.384,7.2400000000000055,0.425408
464.940,7.280000000000006,0.425424
467.503,7.320000000000006,0.425567
470.054,7.360000000000006,0.426107
472.641,7.400000000000006,0.426139
475.197,7.440000000000006,0.426775
477.753,7.480000000000006,0.427268
480.309,7.520000000000006,0.427936
482.866,7.560000000000006,0.428286
485.429,7.600000000000006,0.428763
487.995,7.640000000000006,0.429002
490.549,7.680000000000006,0.429193
493.107,7.720000000000006,0.429224
495.662,7.760000000000006,0.429415
498.218,7.800000000000006,0.429702
500.806,7.840000000000006,0.429495
503.363,7.880000000000006,0.429495
505.933,7.920000000000006,0.429431
508.491,7.960000000000006,0.429415
511.047,8.000000000000005,0.429495
513.604,8.040000000000004,0.429415
516.160,8.080000000000004,0.429479
518.716,8.120000000000003,0.429638
521.272,8.160000000000002,0.42932
523.833,8.200000000000001,0.429129
526.385,8.24,0.429479
528.941,8.28,0.429209
531.497,8.319999999999999,0.429558
534.053,8.359999999999998,0.429256
536.609,8.399999999999997,0.429479
539.165,8.439999999999996,0.429558
541.738,8.479999999999995,0.429399
544.295,8.519999999999994,0.429558
546.850,8.559999999999993,0.429511
549.406,8.599999999999993,0.429352
551.962,8.639999999999992,0.429511
554.519,8.67999999999999,0.428938
557.075,8.71999999999999,0.428811
559.631,8.75999999999999,0.428731
562.188,8.799999999999988,0.428604
564.745,8.839999999999987,0.428302
567.301,8.879999999999987,0.428588
569.856,8.919999999999986,0.428223
572.411,8.959999999999985,0.428398
574.967,8.999999999999984,0.428429
577.525,9.039999999999983,0.427841
580.080,9.079999999999982,0.427682
582.642,9.119999999999981,0.427491
585.193,9.15999999999998,0.4273
587.748,9.19999999999998,0.427109
590.305,9.239999999999979,0.426966
592.864,9.279999999999978,0.426616
595.417,9.319999999999977,0.426378
597.972,9.359999999999976,0.426171
600.529,9.399999999999975,0.42606
603.101,9.439999999999975,0.425869
605.674,9.479999999999974,0.42571
608.228,9.519999999999973,0.425233
610.786,9.559999999999972,0.425105
613.341,9.599999999999971,0.424946
615.898,9.63999999999997,0.424676
618.454,9.67999999999997,0.424915
621.026,9.719999999999969,0.424358
623.582,9.759999999999968,0.424326
626.156,9.799999999999967,0.42431
628.709,9.839999999999966,0.423913
631.284,9.879999999999965,0.424024
633.852,9.919999999999964,0.423849
636.427,9.959999999999964,0.423881
638.984,9.999999999999963,0.423642
641.539,10.039999999999962,0.423642
644.095,10.079999999999961,0.423467
646.651,10.11999999999996,0.423324
649.208,10.15999999999996,0.423229
651.765,10.199999999999958,0.423324
654.319,10.239999999999958,0.423277
656.875,10.279999999999957,0.423197
659.431,10.319999999999956,0.422974
661.988,10.359999999999955,0.422895
664.544,10.399999999999954,0.422656
667.100,10.439999999999953,0.422672
669.656,10.479999999999952,0.422513
672.212,10.519999999999952,0.422338
674.768,10.55999999999995,0.4221
677.325,10.59999999999995,0.422529
679.880,10.639999999999949,0.422434
682.437,10.679999999999948,0.422132
684.995,10.719999999999947,0.421988
687.550,10.759999999999946,0.421877
690.106,10.799999999999946,0.421861
692.661,10.839999999999945,0.421861
695.218,10.879999999999944,0.421702
697.775,10.919999999999943,0.421766
700.329,10.959999999999942,0.421766
702.886,10.999999999999941,0.422036
705.443,11.03999999999994,0.421893
708.011,11.07999999999994,0.422084
710.555,11.119999999999939,0.421782
713.111,11.159999999999938,0.421766
715.667,11.199999999999937,0.42167
718.224,11.239999999999936,0.421575
720.781,11.279999999999935,0.421464
723.335,11.319999999999935,0.421305
725.895,11.359999999999934,0.421686
728.448,11.399999999999933,0.421352
731.003,11.439999999999932,0.421352
733.560,11.479999999999931,0.421591
736.117,11.51999999999993,0.421289
738.673,11.55999999999993,0.421336
741.229,11.599999999999929,0.421352
743.785,11.639999999999928,0.421257
746.342,11.679999999999927,0.421225
748.898,11.719999999999926,0.421305
751.453,11.759999999999925,0.421066
754.010,11.799999999999924,0.421034
756.567,11.839999999999923,0.421305
759.139,11.879999999999923,0.421177
761.695,11.919999999999922,0.42105
764.251,11.959999999999921,0.420955
766.807,11.99999999999992,0.420939
769.363,12.03999999999992,0.421098
771.917,12.079999999999918,0.420987
774.474,12.119999999999918,0.420939
777.031,12.159999999999917,0.420859
779.587,12.199999999999916,0.421098
782.143,12.239999999999915,0.421162
784.700,12.279999999999914,0.420859
787.255,12.319999999999913,0.421002
789.811,12.359999999999912,0.420987
792.368,12.399999999999912,0.420748
794.924,12.43999999999991,0.420716
797.480,12.47999999999991,0.420748
800.036,12.519999999999909,0.420843
802.594,12.559999999999908,0.420843
805.164,12.599999999999907,0.420637
807.720,12.639999999999906,0.420907
810.277,12.679999999999906,0.420541
812.834,12.719999999999905,0.420557
815.389,12.759999999999904,0.420398
817.945,12.799999999999903,0.420573
820.501,12.839999999999902,0.420287
823.058,12.879999999999901,0.420303
825.614,12.9199999999999,0.420319
828.169,12.9599999999999,0.420414
830.725,12.999999999999899,0.420255
